#
#  (1) wavelength (nm)
#  (2) spectral resolving power
#
#  (1)             (2)
150.5311229	240.4728844
151.1571025	241.02
151.7842584	241.5714974
152.4125786	242.3007202
153.041601	242.8005
153.6719193	243.5423036
154.3029059	244.2615
154.9346178	244.7752426
155.5675847	245.5708631
156.2010783	246.251
156.8353949	246.902418
157.4706069	247.6877876
158.1063694	248.227
158.7433121	248.9899235
159.3808612	249.8177274
160.0188498	250.4295
160.6578275	251.2427764
161.29728	252.027
161.93728	252.6617742
162.5782051	253.4828489
163.2195827	254.2145
163.8616372	254.9573299
164.5043394	255.7922044
165.1474565	256.474
165.7913715	257.3058349
166.4357074	258.1835107
167.0803485	258.891
167.725718	259.6497288
168.3716871	260.4662826
169.0181113	261.302
169.6649418	262.1383333
170.3121762	262.962
170.9598446	263.6412536
171.6083009	264.5520165
172.256976	265.448
172.9059053	266.1522752
173.5555556	267.0471321
174.2054616	267.928
174.8556567	268.655846
175.5065104	269.5355065
176.1576547	270.402
176.8091205	271.2769721
177.4608866	272.1635323
178.1129243	272.869
178.7656658	273.8116989
179.4185439	274.7500048
180.0715686	275.5095
180.7251634	276.3523399
181.3791299	277.2333734
182.033377	278.147
182.6878272	279.0036143
183.3426138	279.8725
183.9977072	280.6891459
184.6532284	281.6450066
185.3088525	282.596
185.9645902	283.3321022
186.6209386	284.2775689
187.277413	285.2235
187.9340118	285.9699049
188.5911929	286.905849
189.2485207	287.847
189.9059829	288.6842353
190.5638158	289.624883
191.2217835	290.5615
191.8798947	291.4046193
192.5383602	292.3119044
193.1970346	293.1765
193.8560132	294.1007453
194.5151615	295.0537691
195.1744148	295.982
195.8338279	296.835492
196.4935665	297.7631518
197.1534653	298.6875
197.8135314	299.5455423
198.4739102	300.4693
199.1344566	301.39
199.7951767	302.3210636
200.4560476	303.2545
201.1170635	304.089
201.7784392	305.089
202.4398148	306.0580093
203.1012574	306.886
203.7630708	307.8205843
204.4250248	308.7705552
205.0870861	309.6815
205.7493377	310.6175554
206.4117257	311.5669375
207.0742213	312.475
207.7369119	313.4123591
208.3997348	314.3611502
209.0626658	315.2665
209.7257958	316.2049895
210.3890547	317.1531871
211.052422	318.056
211.715992	318.9954406
212.379688	319.9430424
213.0434927	320.8435
213.7075033	321.7837066
214.3716373	322.7365
215.0358685	323.7365
215.7000996	324.618153
216.3645729	325.5205
217.0292456	326.5205
217.6939182	327.4617681
218.3587101	328.4115
219.0236037	329.4115
219.6884973	330.2946992
220.3536261	331.1915
221.0189621	332.1915
221.6842981	333.1332433
222.3497504	334.0779421
223.0153129	334.969
223.6810919	335.969
224.3468708	336.966868
225.012654	337.8565
225.6786547	338.8565
226.3446553	339.8528761
227.0106631	340.6295
227.6771076	341.6881743
228.3434377	342.7401868
229.0096667	343.5145
229.6763333	344.5145
230.343	345.5128295
231.0096699	346.399
231.6765589	347.399
232.3434478	348.3971987
233.0103402	349.2825
233.6774516	350.2825
234.344563	351.2804488
235.0116783	352.165
235.6790123	353.165
236.3463463	354.1625767
237.0136849	355.0465
237.6812417	356.0465
238.3487984	357.0435793
239.0163606	357.927
239.6841402	358.927
240.3519199	359.9234537
241.0197061	360.8065
241.6877088	361.7421406
242.3558303	362.689861
243.0240481	363.807
243.6920508	364.7413149
244.3601737	365.6798057
245.0284091	366.5625
245.6968583	367.5625
246.3653075	368.5625
247.0337567	369.5625
247.7022059	370.4938143
248.370779	371.4385
249.0394517	372.4385
249.7081244	373.3681345
250.3769231	374.3135
251.0458194	375.3135
251.7147157	376.3135
252.383612	377.3035909
253.0525259	378.187
253.721646	379.187
254.3907661	380.187
255.0598862	381.187
255.7290064	382.1109103
256.3982597	383.059
257.0676037	384.059
257.7369478	384.9807665
258.4064279	385.9446602
259.0759705	387.0595
259.7453146	387.9790336
260.4147975	388.9130891
261.0843938	389.799
261.7541862	390.799
262.4239786	391.8173644
263.0937395	392.9305
263.7633077	393.7599367
264.4331658	394.6868556
265.103148	395.799
265.7729404	396.7111521
266.4428811	397.666
267.1128978	398.666
267.7829146	399.5754795
268.4530831	400.5566909
269.1232831	401.6665
269.7932998	402.5732093
270.4634718	403.504514
271.133758	404.396
271.8042239	405.4922093
272.4745308	406.502565
273.1448207	407.3955
273.8152866	408.3955
274.4857526	409.3955
275.1562186	410.3955
275.8266845	411.3955
276.4971505	412.3609292
277.1676727	413.257
277.8383635	414.257
278.5090543	415.257
279.1797451	416.257
279.8504359	417.257
280.5211268	418.2168759
281.1918819	419.1165
281.8627977	420.1165
282.5337135	421.1165
283.2046293	422.1165
283.8755451	423.1165
284.5464609	424.1165
285.2173767	425.1165
285.8882925	425.9973494
286.559396	426.9735
287.2305369	427.9735
287.9016779	428.9735
288.5728188	429.9735
289.2439597	430.9735
289.9151007	431.9735
290.5862416	432.9177686
291.2574689	433.828
291.9288352	434.828
292.6002014	435.828
293.2715676	436.828
293.9429339	437.828
294.6143001	438.828
295.2856663	439.828
295.9570326	440.828
296.6283988	441.7617654
297.2998657	442.6795
297.9714574	443.6795
298.643049	444.7494447
299.3145351	445.829
300.4648249	467.6232955
301.107361	468.3725
301.7502411	469.3725
302.3931212	470.3555557
303.0360244	471.0695
303.6793181	471.917156
304.3228194	472.7655
304.9665272	473.7655
305.610235	474.7052066
306.2540245	475.6125
306.8979395	476.354219
307.5422036	477.2609731
308.1865936	478.1515
308.8311312	479.0375317
309.4758221	479.997
310.1205674	480.997
310.7653127	481.7993069
311.4103226	482.6726054
312.0555018	483.53
312.7008712	484.3621858
313.3464643	485.217
313.9922506	486.217
314.6380368	487.1478458
315.2839147	488.0595
315.9299096	488.9186693
316.5760905	489.8470374
317.2223659	490.743
317.8687783	491.616321
318.5153573	492.5440963
319.162031	493.4245
319.8088616	494.3118366
320.4558395	495.2645
321.1028793	496.2645
321.7499191	497.067057
322.3972159	497.9313739
323.0446891	498.781
323.6923575	499.781
324.3400259	500.781
324.9876943	501.4621831
325.6357745	502.456
326.2838626	503.456
326.9319507	504.309693
327.5802269	505.2347519
328.2285992	506.1285
328.8771077	506.9952144
329.5257866	507.964
330.1745054	508.964
330.8232241	509.8436524
331.472096	510.7675821
332.1210646	511.6325
332.7702045	512.5250029
333.4194805	513.4483236
334.0688535	514.299
334.7184151	515.299
335.3679766	516.2899393
336.0175496	516.963
336.6675333	517.963
337.3175171	518.963
337.9675008	519.963
338.6174846	520.8236056
339.2676423	521.624
339.9180488	522.624
340.5684553	523.624
341.2188618	524.624
341.8692683	525.3508107
342.520013	526.282
343.1708428	527.282
343.8216726	528.1571816
344.4726563	529.11
345.1236979	530.11
345.7747396	530.9969189
346.4259199	531.9164684
347.0771987	532.7635
347.7286645	533.7635
348.3801303	534.7550492
349.0316064	535.589
349.6832845	536.4991172
350.3350717	537.414
350.9869622	538.414
351.6388527	539.3355704
352.290838	540.238
352.942941	541.238
353.595044	542.1709802
354.2472277	543.061
354.8995434	543.91087
355.5520392	544.8835
356.2045677	545.8835
356.8570962	546.7441373
357.5097911	547.705
358.1625326	548.705
358.8152742	549.5763528
359.4681685	550.4921505
360.1211626	551.3455
360.7743305	552.3455
361.4274984	553.3455
362.0806662	554.3455
362.7338341	555.2380258
363.3871284	556.164
364.0405096	557.164
364.6938909	557.9701058
365.3474992	558.7993652
366.0013072	559.982
366.654902	560.8954545
367.3085976	561.7985
367.962406	562.6250945
368.616416	563.6145
369.2704382	564.6145
369.9244604	565.6145
370.5784827	566.5486158
371.232581	567.429
371.8868171	568.2752161
372.5412304	569.2986821
373.1956166	570.4295
373.8498528	571.1414054
374.504419	572.0555
375.1590835	573.0555
375.813748	574.0555
376.4684124	575.0201026
377.1231172	575.867
377.7779961	576.867
378.4328749	577.867
379.0877538	578.867
379.7426326	579.7517333
380.3976417	580.6616844
381.0527523	581.4865
381.7080603	582.5923131
382.3632493	583.666787
383.0183546	584.2945
383.6738774	585.3908823
384.3292923	586.4865
384.9846003	587.2985298
385.640118	588.2070225
386.2957377	589.101
386.9514754	590.101
387.6072131	591.101
388.2629508	592.101
388.9186885	592.9306467
389.5746146	593.9065
390.2305674	594.9065
390.8865202	595.9065
391.5424729	596.8472657
392.1984908	597.7105
392.8546588	598.7105
393.5108268	599.7105
394.1669948	600.7105
394.8231627	601.5662781
395.479488	602.513
396.1358713	603.513
396.7922547	604.3773822
397.4487853	605.3145
398.1053841	606.3145
398.7619829	607.3145
